# ------------------------------------------------------------------------
# NASA-GSFC Planetary Spectrum Generator (PSG, Villanueva et al. 2015)
# Atmospheric transmittance spectrum synthesized with PUMAS (Villanueva et al. 2016, Smith et al. 2009, Edwards 1992)
# Synthesized on Tue Jul 24 07:38:22 2018
# Molecular abundance atmprofile: Earth at 4084 m, NASA/MERRA 2017/01/02
# Molecules considered: H2O,CO2,O3,O2
# Molecular sources: HIT[1],HIT[2],HIT[3],HIT[7]
# Molecular abundances: 50,1,1,1
# Molecular abundance units: ppm,scl,scl,scl
# ------------------------------------------------------------------------
# Spectral unit: Frequency[GHz]
# Wave/freq Total H2O CO2 O3 O2
1.000000000e+03  0.10357  0.10477  1.00000  0.99390  0.99428
9.990000000e+02  0.07218  0.07367  1.00000  0.99529  0.98417
9.980000000e+02  0.04579  0.04625  1.00000  0.99382  0.99608
9.970000000e+02  0.02410  0.02426  1.00000  0.99569  0.99761
9.960000000e+02  0.00877  0.00889  1.00000  0.98440  0.99799
9.950000000e+02  0.00105  0.00110  1.00000  0.96541  0.99816
9.940000000e+02  0.00024  0.00031  1.00000  0.84657  0.99826
9.930000000e+02  0.00003  0.00003  1.00000  0.94877  0.99832
9.920000000e+02 -0.00000 -0.00000  1.00000  0.98710  0.99837
9.910000000e+02 -0.00000 -0.00000  1.00000  0.99717  0.99841
9.900000000e+02  0.00000  0.00000  1.00000  0.99798  0.99844
9.890000000e+02  0.00000  0.00000  1.00000  0.99814  0.99847
9.880000000e+02  0.00000  0.00000  1.00000  0.99517  0.99850
9.870000000e+02  0.00000  0.00000  1.00000  0.99672  0.99852
9.860000000e+02  0.00000  0.00000  1.00000  0.99205  0.99854
9.850000000e+02  0.00000  0.00000  1.00000  0.99625  0.99855
9.840000000e+02  0.00000  0.00000  1.00000  0.99151  0.99856
9.830000000e+02  0.00002  0.00003  1.00000  0.86369  0.99854
9.820000000e+02  0.00045  0.00046  1.00000  0.98682  0.99848
9.810000000e+02  0.00279  0.00280  1.00000  0.99555  0.99829
9.800000000e+02  0.00919  0.00954  1.00000  0.96472  0.99717
9.790000000e+02  0.02215  0.02233  1.00000  0.99851  0.99392
9.780000000e+02  0.04085  0.04102  1.00000  0.99806  0.99799
9.770000000e+02  0.06137  0.06234  1.00000  0.98699  0.99842
9.760000000e+02  0.08178  0.08233  1.00000  0.99453  0.99856
9.750000000e+02  0.09490  0.09540  1.00000  0.99619  0.99861
9.740000000e+02  0.09281  0.09382  1.00000  0.99042  0.99864
9.730000000e+02  0.06417  0.06920  1.00000  0.92844  0.99866
9.720000000e+02  0.02566  0.02560  1.00000  0.99757  0.99867
9.710000000e+02  0.00207  0.00209  1.00000  0.98563  0.99868
9.700000000e+02  0.00035  0.00037  1.00000  0.93550  0.99869
9.690000000e+02  0.01452  0.01594  1.00000  0.84730  0.99869
9.680000000e+02  0.08298  0.08376  1.00000  0.98902  0.99870
9.670000000e+02  0.17676  0.17757  1.00000  0.99674  0.99870
9.660000000e+02  0.26003  0.26087  1.00000  0.99810  0.99870
9.650000000e+02  0.32448  0.32563  1.00000  0.99776  0.99870
9.640000000e+02  0.37622  0.37728  1.00000  0.99850  0.99869
9.630000000e+02  0.41768  0.41935  1.00000  0.99737  0.99868
9.620000000e+02  0.45034  0.45413  1.00000  0.99284  0.99867
9.610000000e+02  0.48163  0.48360  1.00000  0.99729  0.99864
9.600000000e+02  0.50455  0.50882  1.00000  0.99303  0.99858
9.590000000e+02  0.47964  0.53056  1.00000  0.90647  0.99849
9.580000000e+02  0.52106  0.55074  1.00000  0.94718  0.99829
9.570000000e+02  0.56321  0.56904  1.00000  0.99194  0.99783
9.560000000e+02  0.56046  0.58534  1.00000  0.96114  0.99628
9.550000000e+02  0.58634  0.60006  1.00000  0.99611  0.98103
9.540000000e+02  0.60444  0.61246  1.00000  0.99697  0.98987
9.530000000e+02  0.61797  0.62157  1.00000  0.99738  0.99681
9.520000000e+02  0.62518  0.62995  1.00000  0.99441  0.99802
9.510000000e+02  0.58960  0.63786  1.00000  0.92598  0.99837
9.500000000e+02  0.63524  0.64540  1.00000  0.98566  0.99853
9.490000000e+02  0.58909  0.65259  1.00000  0.90406  0.99862
9.480000000e+02  0.65556  0.65943  1.00000  0.99550  0.99867
9.470000000e+02  0.66333  0.66582  1.00000  0.99756  0.99870
9.460000000e+02  0.66935  0.67143  1.00000  0.99818  0.99872
9.450000000e+02  0.66196  0.67258  1.00000  0.98539  0.99873
9.440000000e+02  0.67930  0.68259  1.00000  0.99644  0.99873
9.430000000e+02  0.68581  0.68955  1.00000  0.99582  0.99874
9.420000000e+02  0.69320  0.69524  1.00000  0.99832  0.99874
9.410000000e+02  0.69851  0.70041  1.00000  0.99854  0.99874
9.400000000e+02  0.70228  0.70519  1.00000  0.99713  0.99874
9.390000000e+02  0.70738  0.70928  1.00000  0.99858  0.99874
9.380000000e+02  0.71087  0.71309  1.00000  0.99815  0.99874
9.370000000e+02  0.70971  0.71775  1.00000  0.99004  0.99874
9.360000000e+02  0.71450  0.72138  1.00000  0.99173  0.99873
9.350000000e+02  0.72025  0.72441  1.00000  0.99553  0.99873
9.340000000e+02  0.71373  0.72694  1.00000  0.98309  0.99873
9.330000000e+02  0.60684  0.72888  1.00000  0.83357  0.99872
9.320000000e+02  0.71839  0.73003  1.00000  0.98531  0.99871
9.310000000e+02  0.72681  0.73031  1.00000  0.99649  0.99871
9.300000000e+02  0.72653  0.72951  1.00000  0.99722  0.99870
9.290000000e+02  0.72385  0.72720  1.00000  0.99670  0.99869
9.280000000e+02  0.70444  0.72306  1.00000  0.97548  0.99867
9.270000000e+02  0.69555  0.71630  1.00000  0.97232  0.99866
9.260000000e+02  0.67617  0.70616  1.00000  0.95893  0.99863
9.250000000e+02  0.63061  0.69176  1.00000  0.91323  0.99859
9.240000000e+02  0.66579  0.66916  1.00000  0.99642  0.99852
9.230000000e+02  0.63237  0.63495  1.00000  0.99755  0.99838
9.220000000e+02  0.58524  0.58714  1.00000  0.99872  0.99804
9.210000000e+02  0.51255  0.51508  1.00000  0.99824  0.99679
9.200000000e+02  0.39591  0.40496  1.00000  0.98726  0.98886
9.190000000e+02  0.24072  0.24991  1.00000  0.97024  0.99128
9.180000000e+02  0.09707  0.09750  1.00000  0.99747  0.99744
9.170000000e+02  0.00836  0.00840  1.00000  0.99823  0.99808
9.160000000e+02  0.00001  0.00001  1.00000  0.99876  0.99829
9.150000000e+02  0.02427  0.02439  1.00000  0.99726  0.99837
9.140000000e+02  0.14608  0.14655  1.00000  0.99817  0.99840
9.130000000e+02  0.31554  0.31663  1.00000  0.99819  0.99841
9.120000000e+02  0.44968  0.45606  1.00000  0.98763  0.99840
9.110000000e+02  0.54968  0.55247  1.00000  0.99657  0.99839
9.100000000e+02  0.61331  0.61837  1.00000  0.99344  0.99837
9.090000000e+02  0.62280  0.66162  1.00000  0.94354  0.99835
9.080000000e+02  0.60089  0.68736  1.00000  0.87497  0.99832
9.070000000e+02  0.67524  0.68280  1.00000  0.99061  0.99828
9.060000000e+02  0.64506  0.64979  1.00000  0.99435  0.99824
9.050000000e+02  0.72561  0.73043  1.00000  0.99524  0.99819
9.040000000e+02  0.75367  0.75757  1.00000  0.99671  0.99813
9.030000000e+02  0.76201  0.76529  1.00000  0.99765  0.99805
9.020000000e+02  0.77261  0.77853  1.00000  0.99441  0.99795
9.010000000e+02  0.77461  0.78939  1.00000  0.98342  0.99779
9.000000000e+02  0.78807  0.79109  1.00000  0.99862  0.99755
8.990000000e+02  0.78520  0.78853  1.00000  0.99865  0.99712
8.980000000e+02  0.79879  0.80370  1.00000  0.99770  0.99618
8.970000000e+02  0.79703  0.80711  1.00000  0.99373  0.99374
8.960000000e+02  0.72021  0.79741  1.00000  0.91950  0.98228
8.950000000e+02  0.73066  0.79180  1.00000  0.99218  0.93008
8.940000000e+02  0.67915  0.69864  1.00000  0.98644  0.98629
8.930000000e+02  0.74983  0.75624  1.00000  0.99753  0.99386
8.920000000e+02  0.80651  0.81122  1.00000  0.99803  0.99615
8.910000000e+02  0.82177  0.82643  1.00000  0.99747  0.99689
8.900000000e+02  0.82833  0.83307  1.00000  0.99708  0.99721
8.890000000e+02  0.82785  0.83836  1.00000  0.99009  0.99736
8.880000000e+02  0.76355  0.84166  1.00000  0.90951  0.99742
8.870000000e+02  0.78607  0.84443  1.00000  0.93326  0.99743
8.860000000e+02  0.80837  0.84674  1.00000  0.95711  0.99742
8.850000000e+02  0.83729  0.84875  1.00000  0.98906  0.99739
8.840000000e+02  0.83938  0.85052  1.00000  0.98952  0.99734
8.830000000e+02  0.75310  0.85200  1.00000  0.88629  0.99729
8.820000000e+02  0.83839  0.85392  1.00000  0.98452  0.99723
8.810000000e+02  0.84848  0.85550  1.00000  0.99461  0.99716
8.800000000e+02  0.85303  0.85696  1.00000  0.99832  0.99708
8.790000000e+02  0.85478  0.85840  1.00000  0.99877  0.99701
8.780000000e+02  0.85636  0.85976  1.00000  0.99911  0.99692
8.770000000e+02  0.85735  0.86107  1.00000  0.99884  0.99684
8.760000000e+02  0.85560  0.86233  1.00000  0.99544  0.99675
8.750000000e+02  0.85922  0.86355  1.00000  0.99834  0.99665
8.740000000e+02  0.86005  0.86473  1.00000  0.99803  0.99655
8.730000000e+02  0.86205  0.86587  1.00000  0.99913  0.99645
8.720000000e+02  0.86278  0.86697  1.00000  0.99882  0.99634
8.710000000e+02  0.86338  0.86804  1.00000  0.99839  0.99623
8.700000000e+02  0.86140  0.86906  1.00000  0.99505  0.99612
8.690000000e+02  0.85406  0.87002  1.00000  0.98559  0.99600
8.680000000e+02  0.86474  0.87092  1.00000  0.99700  0.99588
8.670000000e+02  0.86490  0.87173  1.00000  0.99640  0.99575
8.660000000e+02  0.83880  0.87240  1.00000  0.96572  0.99562
8.650000000e+02  0.86490  0.87277  1.00000  0.99549  0.99547
8.640000000e+02  0.86244  0.87205  1.00000  0.99367  0.99528
8.630000000e+02  0.77540  0.87051  1.00000  0.89520  0.99499
8.620000000e+02  0.84765  0.86682  1.00000  0.98318  0.99457
8.610000000e+02  0.80354  0.85749  1.00000  0.94408  0.99291
8.600000000e+02  0.82363  0.83453  1.00000  0.99446  0.99244
8.590000000e+02  0.84216  0.85570  1.00000  0.99066  0.99349
8.580000000e+02  0.76425  0.86601  1.00000  0.88856  0.99324
8.570000000e+02  0.84841  0.86962  1.00000  0.98267  0.99281
8.560000000e+02  0.85785  0.87125  1.00000  0.99227  0.99229
8.550000000e+02  0.85893  0.87170  1.00000  0.99361  0.99169
8.540000000e+02  0.85858  0.87042  1.00000  0.99538  0.99099
8.530000000e+02  0.85400  0.87107  1.00000  0.99014  0.99018
8.520000000e+02  0.85778  0.87138  1.00000  0.99511  0.98923
8.510000000e+02  0.85474  0.87007  1.00000  0.99420  0.98812
8.500000000e+02  0.84111  0.86527  1.00000  0.98507  0.98681
8.490000000e+02  0.78642  0.83931  1.00000  0.95018  0.98523
8.480000000e+02  0.84611  0.86462  1.00000  0.99528  0.98330
8.470000000e+02  0.84831  0.87011  1.00000  0.99390  0.98093
8.460000000e+02  0.84411  0.87140  1.00000  0.99052  0.97794
8.450000000e+02  0.83533  0.87187  1.00000  0.98354  0.97412
8.440000000e+02  0.79528  0.87188  1.00000  0.94115  0.96911
8.430000000e+02  0.41205  0.87152  1.00000  0.49090  0.96238
8.420000000e+02  0.49616  0.86998  1.00000  0.59856  0.95301
8.410000000e+02  0.62200  0.86647  1.00000  0.76400  0.93945
8.400000000e+02  0.62906  0.86997  1.00000  0.78601  0.91881
8.390000000e+02  0.70814  0.86832  1.00000  0.92122  0.88530
8.380000000e+02  0.61666  0.87034  1.00000  0.85804  0.82617
8.370000000e+02  0.56161  0.86948  1.00000  0.90891  0.71052
8.360000000e+02  0.38558  0.87102  1.00000  0.95234  0.46567
8.350000000e+02  0.08789  0.87137  1.00000  0.89009  0.11820
8.340000000e+02  0.00179  0.87084  1.00000  0.94919  0.00230
8.330000000e+02  0.15999  0.86917  1.00000  0.87681  0.21432
8.320000000e+02  0.42886  0.86734  1.00000  0.88719  0.55926
8.310000000e+02  0.54849  0.86528  1.00000  0.84365  0.75196
8.300000000e+02  0.70924  0.86273  1.00000  0.97032  0.84624
8.290000000e+02  0.76223  0.85878  1.00000  0.99072  0.89588
8.280000000e+02  0.76467  0.84586  1.00000  0.97785  0.92458
8.270000000e+02  0.73780  0.82770  1.00000  0.94665  0.94237
8.260000000e+02  0.70390  0.84984  1.00000  0.86920  0.95330
8.250000000e+02  0.80098  0.85314  1.00000  0.97553  0.96234
8.240000000e+02  0.82142  0.85282  1.00000  0.99445  0.96856
8.230000000e+02  0.82610  0.85165  1.00000  0.99692  0.97300
8.220000000e+02  0.82775  0.85015  1.00000  0.99727  0.97632
8.210000000e+02  0.82796  0.84849  1.00000  0.99688  0.97886
8.200000000e+02  0.79808  0.84674  1.00000  0.96095  0.98083
8.190000000e+02  0.82323  0.84492  1.00000  0.99181  0.98238
8.180000000e+02  0.81924  0.84306  1.00000  0.98795  0.98360
8.170000000e+02  0.82633  0.84116  1.00000  0.99779  0.98454
8.160000000e+02  0.82473  0.83922  1.00000  0.99740  0.98529
8.150000000e+02  0.82117  0.83726  1.00000  0.99485  0.98586
8.140000000e+02  0.77189  0.83527  1.00000  0.93699  0.98625
8.130000000e+02  0.77538  0.83325  1.00000  0.94341  0.98637
8.120000000e+02  0.80856  0.83121  1.00000  0.98799  0.98454
8.110000000e+02  0.75373  0.82914  1.00000  0.92472  0.98306
8.100000000e+02  0.80749  0.82705  1.00000  0.98942  0.98679
8.090000000e+02  0.80958  0.82493  1.00000  0.99418  0.98713
8.080000000e+02  0.73836  0.82279  1.00000  0.90894  0.98721
8.070000000e+02  0.79204  0.82062  1.00000  0.97773  0.98717
8.060000000e+02  0.80549  0.81843  1.00000  0.99708  0.98707
8.050000000e+02  0.80141  0.81620  1.00000  0.99489  0.98692
8.040000000e+02  0.80052  0.81324  1.00000  0.99768  0.98663
8.030000000e+02  0.79477  0.80905  1.00000  0.99614  0.98616
8.020000000e+02  0.78183  0.80453  1.00000  0.98602  0.98558
8.010000000e+02  0.78627  0.79972  1.00000  0.99827  0.98489
8.000000000e+02  0.78025  0.79458  1.00000  0.99784  0.98409
7.990000000e+02  0.75709  0.78897  1.00000  0.97598  0.98316
7.980000000e+02  0.76588  0.78160  1.00000  0.99775  0.98209
7.970000000e+02  0.75920  0.77517  1.00000  0.99854  0.98082
7.960000000e+02  0.75344  0.77080  1.00000  0.99809  0.97934
7.950000000e+02  0.74368  0.76434  1.00000  0.99526  0.97758
7.940000000e+02  0.73375  0.75719  1.00000  0.99348  0.97538
7.930000000e+02  0.67916  0.74951  1.00000  0.93221  0.97218
7.920000000e+02  0.70566  0.74130  1.00000  0.98797  0.96356
7.910000000e+02  0.69022  0.73254  1.00000  0.99700  0.94507
7.900000000e+02  0.69430  0.72315  1.00000  0.99823  0.96181
7.890000000e+02  0.68251  0.71311  1.00000  0.99785  0.95915
7.880000000e+02  0.66925  0.70238  1.00000  0.99842  0.95432
7.870000000e+02  0.65322  0.69085  1.00000  0.99749  0.94788
7.860000000e+02  0.62356  0.67851  1.00000  0.97774  0.93975
7.850000000e+02  0.56365  0.66529  1.00000  0.91077  0.92943
7.840000000e+02  0.57701  0.65104  1.00000  0.96761  0.91590
7.830000000e+02  0.55369  0.63575  1.00000  0.96943  0.89812
7.820000000e+02  0.49964  0.61928  1.00000  0.92470  0.87379
7.810000000e+02  0.50154  0.60158  1.00000  0.99246  0.84007
7.800000000e+02  0.43468  0.58257  1.00000  0.94044  0.79189
7.790000000e+02  0.39992  0.56203  1.00000  0.99037  0.71838
7.780000000e+02  0.32562  0.53995  1.00000  0.99540  0.60540
7.770000000e+02  0.21551  0.51614  1.00000  0.97346  0.42706
7.760000000e+02  0.08177  0.49057  1.00000  0.91230  0.18628
7.750000000e+02  0.00993  0.46285  1.00000  0.99433  0.02139
7.740000000e+02  0.00021  0.43363  1.00000  0.99539  0.00045
7.730000000e+02  0.00208  0.40221  1.00000  0.99767  0.00537
7.720000000e+02  0.04203  0.36878  1.00000  0.99800  0.11588
7.710000000e+02  0.11681  0.33337  1.00000  0.99831  0.35427
7.700000000e+02  0.16351  0.29625  1.00000  0.99858  0.55506
7.690000000e+02  0.17590  0.25767  1.00000  0.99820  0.68604
7.680000000e+02  0.16622  0.21821  1.00000  0.98987  0.77077
7.670000000e+02  0.14541  0.17855  1.00000  0.98721  0.82584
7.660000000e+02  0.11233  0.13985  1.00000  0.93526  0.86265
7.650000000e+02  0.09060  0.10357  1.00000  0.98635  0.88874
7.640000000e+02  0.06437  0.07091  1.00000  0.99803  0.91046
7.630000000e+02  0.04045  0.04379  1.00000  0.99877  0.92551
7.620000000e+02  0.02170  0.02323  1.00000  0.99726  0.93701
7.610000000e+02  0.00947  0.01005  1.00000  0.99662  0.94593
7.600000000e+02  0.00289  0.00309  1.00000  0.98595  0.95307
7.590000000e+02  0.00057  0.00059  1.00000  0.99766  0.95881
7.580000000e+02  0.00007  0.00007  1.00000  0.98629  0.96350
7.570000000e+02  0.00000  0.00000  1.00000  0.90917  0.96741
7.560000000e+02  0.00000  0.00000  1.00000  0.99527  0.97065
7.550000000e+02 -0.00000 -0.00000  1.00000  0.99032  0.97336
7.540000000e+02 -0.00000 -0.00000  1.00000  0.96384  0.97554
7.530000000e+02  0.00000  0.00000  1.00000  0.99630  0.97698
7.520000000e+02 -0.00000 -0.00000  1.00000  0.97859  0.97434
7.510000000e+02  0.00000  0.00000  1.00000  0.97728  0.97024
7.500000000e+02  0.00000  0.00000  1.00000  0.99493  0.98021
7.490000000e+02  0.00000  0.00000  1.00000  0.93525  0.98308
7.480000000e+02  0.00000  0.00000  1.00000  0.98694  0.98442
7.470000000e+02  0.00000  0.00000  1.00000  0.92156  0.98543
7.460000000e+02  0.00004  0.00004  1.00000  0.98271  0.98627
7.450000000e+02  0.00039  0.00040  1.00000  0.99766  0.98697
7.440000000e+02  0.00325  0.00330  1.00000  0.99781  0.98749
7.430000000e+02  0.01058  0.01081  1.00000  0.98990  0.98773
7.420000000e+02  0.02363  0.02412  1.00000  0.99054  0.98781
7.410000000e+02  0.04238  0.04370  1.00000  0.98374  0.98769
7.400000000e+02  0.06277  0.06803  1.00000  0.92591  0.98731
7.390000000e+02  0.09285  0.09460  1.00000  0.99375  0.98661
7.380000000e+02  0.11885  0.12086  1.00000  0.99782  0.98554
7.370000000e+02  0.14150  0.14423  1.00000  0.99714  0.98392
7.360000000e+02  0.15839  0.16228  1.00000  0.99426  0.98156
7.350000000e+02  0.16570  0.17326  1.00000  0.97781  0.97816
7.340000000e+02  0.16518  0.17592  1.00000  0.96500  0.97314
7.330000000e+02  0.16382  0.17015  1.00000  0.99745  0.96519
7.320000000e+02  0.25004  0.26031  1.00000  0.99852  0.95912
7.310000000e+02  0.38273  0.41110  1.00000  0.99805  0.93223
7.300000000e+02  0.42621  0.43960  1.00000  0.99047  0.97878
7.290000000e+02  0.46074  0.46882  1.00000  0.99855  0.98415
7.280000000e+02  0.48763  0.49609  1.00000  0.99811  0.98482
7.270000000e+02  0.50614  0.52148  1.00000  0.98638  0.98411
7.260000000e+02  0.53418  0.54518  1.00000  0.99713  0.98265
7.250000000e+02  0.55457  0.56717  1.00000  0.99737  0.98038
7.240000000e+02  0.56540  0.58757  1.00000  0.98494  0.97707
7.230000000e+02  0.54532  0.60652  1.00000  0.92415  0.97226
7.220000000e+02  0.60043  0.62413  1.00000  0.99692  0.96505
7.210000000e+02  0.60803  0.64051  1.00000  0.99543  0.95368
7.200000000e+02  0.57280  0.65575  1.00000  0.93470  0.93447
7.190000000e+02  0.59192  0.66994  1.00000  0.98320  0.89868
7.180000000e+02  0.51881  0.68315  1.00000  0.92597  0.82209
7.170000000e+02  0.43261  0.69549  1.00000  0.99017  0.62882
7.160000000e+02  0.13870  0.70700  1.00000  0.99802  0.19745
7.150000000e+02  0.08772  0.71776  1.00000  0.99855  0.12198
7.140000000e+02  0.40568  0.72782  1.00000  0.99825  0.55770
7.130000000e+02  0.58480  0.73723  1.00000  0.99866  0.79408
7.120000000e+02  0.65651  0.74605  1.00000  0.99179  0.88736
7.110000000e+02  0.69723  0.75432  1.00000  0.99434  0.92947
7.100000000e+02  0.71714  0.76208  1.00000  0.98900  0.95154
7.090000000e+02  0.73974  0.76938  1.00000  0.99692  0.96444
7.080000000e+02  0.74641  0.77624  1.00000  0.98867  0.97257
7.070000000e+02  0.76431  0.78269  1.00000  0.99884  0.97764
7.060000000e+02  0.77364  0.78877  1.00000  0.99889  0.98191
7.050000000e+02  0.78186  0.79450  1.00000  0.99915  0.98492
7.040000000e+02  0.78866  0.79991  1.00000  0.99880  0.98712
7.030000000e+02  0.79385  0.80499  1.00000  0.99733  0.98880
7.020000000e+02  0.78786  0.80949  1.00000  0.98299  0.99014
7.010000000e+02  0.73188  0.81223  1.00000  0.90908  0.99120
7.000000000e+02  0.80108  0.81486  1.00000  0.99093  0.99207
6.990000000e+02  0.80061  0.81737  1.00000  0.98661  0.99278
6.980000000e+02  0.81225  0.81981  1.00000  0.99738  0.99338
6.970000000e+02  0.81312  0.82218  1.00000  0.99506  0.99389
6.960000000e+02  0.80550  0.82445  1.00000  0.98260  0.99431
6.950000000e+02  0.78554  0.82654  1.00000  0.95552  0.99465
6.940000000e+02  0.79433  0.82821  1.00000  0.96408  0.99483
6.930000000e+02  0.76977  0.82801  1.00000  0.93567  0.99365
6.920000000e+02  0.75639  0.81927  1.00000  0.92821  0.99460
6.910000000e+02  0.82239  0.83317  1.00000  0.99132  0.99570
6.900000000e+02  0.83234  0.83744  1.00000  0.99789  0.99600
6.890000000e+02  0.83618  0.84031  1.00000  0.99887  0.99622
6.880000000e+02  0.83898  0.84276  1.00000  0.99911  0.99640
6.870000000e+02  0.84117  0.84505  1.00000  0.99884  0.99657
6.860000000e+02  0.84315  0.84726  1.00000  0.99844  0.99671
6.850000000e+02  0.84508  0.84941  1.00000  0.99805  0.99684
